#instrument=ARROW,
#ra=308.9712,
#dec=40.6636,
#alt=NaN,
#az=NaN,
#tracking=true,
#startTime=1477310580,
#startTimeUTC=2019-10-24T13:05:00.566Z,
#user=is4555,
#fullScan=true,
#completeTime=1477310680,
#completeTimeUTC=2016-10-24T12:04:40.937Z,
frequency,intensity
-800000,2.368
-795000,2.359
-790000,2.364
-785000,2.405
-780000,2.386
-775000,2.371
-770000,2.4
-765000,2.369
-760000,2.381
-755000,2.386
-750000,2.389
-745000,2.424
-740000,2.421
-735000,2.389
-730000,2.396
-725000,2.397
-720000,2.388
-715000,2.391
-710000,2.435
-705000,2.4
-700000,2.441
-695000,2.448
-690000,2.437
-685000,2.416
-680000,2.412
-675000,2.455
-670000,2.457
-665000,2.418
-660000,2.439
-655000,2.439
-650000,2.444
-645000,2.446
-640000,2.447
-635000,2.446
-630000,2.463
-625000,2.452
-620000,2.47
-615000,2.481
-610000,2.47
-605000,2.485
-600000,2.453
-595000,2.466
-590000,2.478
-585000,2.462
-580000,2.457
-575000,2.474
-570000,2.484
-565000,2.465
-560000,2.479
-555000,2.472
-550000,2.488
-545000,2.503
-540000,2.516
-535000,2.514
-530000,2.496
-525000,2.484
-520000,2.523
-515000,2.509
-510000,2.514
-505000,2.538
-500000,2.504
-495000,2.53
-490000,2.52
-485000,2.545
-480000,2.526
-475000,2.547
-470000,2.542
-465000,2.537
-460000,2.565
-455000,2.552
-450000,2.542
-445000,2.569
-440000,2.572
-435000,2.567
-430000,2.569
-425000,2.533
-420000,2.562
-415000,2.565
-410000,2.579
-405000,2.544
-400000,2.586
-395000,2.553
-390000,2.556
-385000,2.59
-380000,2.567
-375000,2.567
-370000,2.576
-365000,2.601
-360000,2.591
-355000,2.584
-350000,2.592
-345000,2.58
-340000,2.615
-335000,2.598
-330000,2.605
-325000,2.589
-320000,2.629
-315000,2.6
-310000,2.622
-305000,2.605
-300000,2.643
-295000,2.632
-290000,2.619
-285000,2.626
-280000,2.646
-275000,2.639
-270000,2.652
-265000,2.653
-260000,2.641
-255000,2.628
-250000,2.651
-245000,2.665
-240000,2.663
-235000,2.631
-230000,2.679
-225000,2.644
-220000,2.659
-215000,2.643
-210000,2.656
-205000,2.687
-200000,2.657
-195000,2.668
-190000,2.67
-185000,2.677
-180000,2.694
-175000,2.674
-170000,2.683
-165000,2.704
-160000,2.697
-155000,2.712
-150000,2.677
-145000,2.716
-140000,2.685
-135000,2.699
-130000,2.708
-125000,2.722
-120000,2.732
-115000,2.726
-110000,2.728
-105000,2.735
-100000,2.714
-95000,2.697
-90000,2.735
-85000,2.732
-80000,2.738
-75000,2.709
-70000,2.726
-65000,2.761
-60000,2.746
-55000,2.732
-50000,2.768
-45000,2.738
-40000,2.749
-35000,2.74
-30000,2.73
-25000,2.766
-20000,2.762
-15000,2.738
-10000,2.789
-5000,2.762
0,2.771
5000,2.768
10000,2.777
15000,2.755
20000,2.761
25000,2.789
30000,2.794
35000,2.781
40000,2.788
45000,2.804
50000,2.779
55000,2.779
60000,2.81
65000,2.803
70000,2.811
75000,2.805
80000,2.785
85000,2.817
90000,2.789
95000,2.794
100000,2.813
105000,2.798
110000,2.814
115000,2.847
120000,2.816
125000,2.836
130000,2.849
135000,2.814
140000,2.835
145000,2.853
150000,2.857
155000,2.85
160000,2.825
165000,2.833
170000,2.837
175000,2.848
180000,2.834
185000,2.838
190000,2.858
195000,2.865
200000,2.857
205000,2.853
210000,2.878
215000,2.872
220000,2.881
225000,2.893
230000,2.896
235000,2.891
240000,2.906
245000,2.897
250000,2.89
255000,2.904
260000,2.877
265000,2.888
270000,2.924
275000,2.895
280000,2.902
285000,2.911
290000,2.923
295000,2.919
300000,2.937
305000,2.899
310000,2.933
315000,2.916
320000,2.917
325000,2.947
330000,2.938
335000,2.92
340000,2.944
345000,2.93
350000,2.936
355000,2.96
360000,2.924
365000,2.935
370000,2.954
375000,2.957
380000,2.952
385000,2.972
390000,2.949
395000,2.963
400000,2.945
405000,2.976
410000,2.987
415000,2.985
420000,2.995
425000,2.991
430000,2.972
435000,2.962
440000,3.011
445000,2.983
450000,2.999
455000,3.007
460000,3.003
465000,2.999
470000,3
475000,3.01
480000,3.011
485000,3.022
490000,3.01
495000,3.019
500000,3.028
505000,3.022
510000,3.018
515000,3.027
520000,3.034
525000,3.033
530000,3.036
535000,3.044
540000,3.043
545000,3.051
550000,3.041
555000,3.029
560000,3.056
565000,3.027
570000,3.036
575000,3.03
580000,3.071
585000,3.057
590000,3.065
595000,3.07
600000,3.067
605000,3.077
610000,3.078
615000,3.075
620000,3.084
625000,3.078
630000,3.094
635000,3.075
640000,3.074
645000,3.096
650000,3.068
655000,3.073
660000,3.098
665000,3.099
670000,3.123
675000,3.115
680000,3.1
685000,3.107
690000,3.093
695000,3.089
700000,3.137
705000,3.127
710000,3.111
715000,3.138
720000,3.139
725000,3.121
730000,3.114
735000,3.146
740000,3.157
745000,3.153
750000,3.163
755000,3.163
760000,3.126
765000,3.128
770000,3.155
775000,3.151
780000,3.169
785000,3.176
790000,3.139
795000,3.146
800000,3.185
805000,3.181
810000,3.146
815000,3.177
820000,3.162
825000,3.182
830000,3.178
835000,3.174
840000,3.162
845000,3.186
850000,3.208
855000,3.214
860000,3.193
865000,3.219
870000,3.214
875000,3.178
880000,3.187
885000,3.209
890000,3.211
895000,3.207
900000,3.229
905000,3.232
910000,3.244
915000,3.238
920000,3.208
925000,3.21
930000,3.229
935000,3.225
940000,3.24
945000,3.251
950000,3.256
955000,3.249
960000,3.227
965000,3.253
970000,3.242
975000,3.25
980000,3.237
985000,3.236
990000,3.247
995000,3.251
1000000,3.257
1005000,3.258
1010000,3.247
1015000,3.278
1020000,3.296
1025000,3.295
1030000,3.303
1035000,3.266
1040000,3.268
1045000,3.289
1050000,3.28
1055000,3.314
1060000,3.279
1065000,3.298
1070000,3.281
1075000,3.31
1080000,3.319
1085000,3.33
1090000,3.311
1095000,3.29
1100000,3.321
1105000,3.341
1110000,3.297
1115000,3.305
1120000,3.308
1125000,3.35
1130000,3.352
1135000,3.324
1140000,3.348
1145000,3.328
1150000,3.36
1155000,3.317
1160000,3.34
1165000,3.365
1170000,3.347
1175000,3.367
1180000,3.34
1185000,3.377
1190000,3.38
1195000,3.354
1200000,3.356
1205000,3.348
1210000,3.384
1215000,3.358
1220000,3.384
1225000,3.356
1230000,3.38
1235000,3.397
1240000,3.37
1245000,3.373
1250000,3.367
1255000,3.386
1260000,3.401
1265000,3.398
1270000,3.385
1275000,3.381
1280000,3.385
1285000,3.41
1290000,3.394
1295000,3.392
1300000,3.424
